#temperature (K)# #Gibbs free energy (kJ / mol)#
100.0 -1242824.04164
110.0 -1242825.9556
120.0 -1242827.89608
130.0 -1242829.8609
140.0 -1242831.84815
150.0 -1242833.85621
160.0 -1242835.88371
170.0 -1242837.92945
180.0 -1242839.99238
190.0 -1242842.07153
200.0 -1242844.16605
210.0 -1242846.27525
220.0 -1242848.39842
230.0 -1242850.5349
240.0 -1242852.68425
250.0 -1242854.84589
260.0 -1242857.01938
270.0 -1242859.20435
280.0 -1242861.4003
290.0 -1242863.607
300.0 -1242865.82407
310.0 -1242868.05119
320.0 -1242870.2881
330.0 -1242872.53451
340.0 -1242874.79016
350.0 -1242877.05476
360.0 -1242879.32852
370.0 -1242881.61063
380.0 -1242883.90117
390.0 -1242886.19994
400.0 -1242888.50672
410.0 -1242890.82134
420.0 -1242893.14389
430.0 -1242895.47393
440.0 -1242897.81128
450.0 -1242900.15579
460.0 -1242902.50787
470.0 -1242904.86654
480.0 -1242907.23249
490.0 -1242909.60504
500.0 -1242911.98433
510.0 -1242914.36997
520.0 -1242916.76211
530.0 -1242919.16064
540.0 -1242921.56545
550.0 -1242923.97644
560.0 -1242926.39349
570.0 -1242928.81652
580.0 -1242931.24541
590.0 -1242933.68009
600.0 -1242936.12046
610.0 -1242938.56643
620.0 -1242941.01792
630.0 -1242943.47485
640.0 -1242945.93713
650.0 -1242948.40496
660.0 -1242950.87799
670.0 -1242953.35616
680.0 -1242955.83938
690.0 -1242958.3276
700.0 -1242960.821
710.0 -1242963.31926
720.0 -1242965.82232
730.0 -1242968.33036
740.0 -1242970.84308
750.0 -1242973.36041
760.0 -1242975.88255
770.0 -1242978.40919
780.0 -1242980.94027
790.0 -1242983.476
800.0 -1242986.01607
810.0 -1242988.56042
820.0 -1242991.10926
830.0 -1242993.66229
840.0 -1242996.21971
850.0 -1242998.78122
860.0 -1243001.34678
870.0 -1243003.91659
880.0 -1243006.49036
890.0 -1243009.0683
900.0 -1243011.65011
910.0 -1243014.23599
920.0 -1243016.82567
930.0 -1243019.41935
940.0 -1243022.01674
950.0 -1243024.61781
960.0 -1243027.22276
970.0 -1243029.83156
980.0 -1243032.44392
990.0 -1243035.06005
1000.0 -1243037.67945
1010.0 -1243040.30279
1020.0 -1243042.92955
1030.0 -1243045.55972
1040.0 -1243048.1935
1050.0 -1243050.83083
1060.0 -1243053.47148
1070.0 -1243056.11563
1080.0 -1243058.76303
1090.0 -1243061.41365
1100.0 -1243064.06769
1110.0 -1243066.72511
1120.0 -1243069.38567
1130.0 -1243072.04955
1140.0 -1243074.71652
1150.0 -1243077.38677
1160.0 -1243080.06004
1170.0 -1243082.73654
1180.0 -1243085.41602
1190.0 -1243088.09867
1200.0 -1243090.78446
1210.0 -1243093.47316
1220.0 -1243096.16475
1230.0 -1243098.85962
1240.0 -1243101.55712
1250.0 -1243104.25786
1260.0 -1243106.96138
1270.0 -1243109.66769
1280.0 -1243112.37695
1290.0 -1243115.08894
1300.0 -1243117.80405
1310.0 -1243120.52165
1320.0 -1243123.24212
1330.0 -1243125.96544
1340.0 -1243128.69159
1350.0 -1243131.42016
1360.0 -1243134.15172
1370.0 -1243136.88585
1380.0 -1243139.62253
1390.0 -1243142.36195
1400.0 -1243145.10429
1410.0 -1243147.84893
1420.0 -1243150.59624
1430.0 -1243153.34603
1440.0 -1243156.09865
1450.0 -1243158.85351
1460.0 -1243161.61098
1470.0 -1243164.37104
1480.0 -1243167.13349
1490.0 -1243169.89869
1500.0 -1243172.66604
1510.0 -1243175.43593
1520.0 -1243178.20832
1530.0 -1243180.98302
1540.0 -1243183.7602
1550.0 -1243186.53985
1560.0 -1243189.32175
1570.0 -1243192.10609
1580.0 -1243194.89266
1590.0 -1243197.68163
1600.0 -1243200.47281
1610.0 -1243203.26637
1620.0 -1243206.06228
1630.0 -1243208.86037
1640.0 -1243211.66078
1650.0 -1243214.46351
1660.0 -1243217.26837
1670.0 -1243220.07535
1680.0 -1243222.88478
1690.0 -1243225.69612
1700.0 -1243228.50989
1710.0 -1243231.32572
1720.0 -1243234.14379
1730.0 -1243236.96389
1740.0 -1243239.7862
1750.0 -1243242.61052
1760.0 -1243245.43702
1770.0 -1243248.26569
1780.0 -1243251.09634
1790.0 -1243253.92914
1800.0 -1243256.76389
1810.0 -1243259.60094
1820.0 -1243262.43993
1830.0 -1243265.28084
1840.0 -1243268.12367
1850.0 -1243270.96875
1860.0 -1243273.81572
1870.0 -1243276.66475
1880.0 -1243279.51566
1890.0 -1243282.3686
1900.0 -1243285.22356
1910.0 -1243288.08037
1920.0 -1243290.93918
1930.0 -1243293.79981
1940.0 -1243296.66243
1950.0 -1243299.52687
1960.0 -1243302.3931
1970.0 -1243305.26144
1980.0 -1243308.1327
1990.0 -1243311.00364
2000.0 -1243313.87746
2010.0 -1243316.75416
2020.0 -1243319.63212
2030.0 -1243322.51134
2040.0 -1243325.39183
2050.0 -1243328.27513
2060.0 -1243331.15968
2070.0 -1243334.04703
2080.0 -1243336.9356
2090.0 -1243339.8254
2100.0 -1243342.71796
2110.0 -1243345.61173
2120.0 -1243348.5067
2130.0 -1243351.4044
2140.0 -1243354.30329
2150.0 -1243357.20489
2160.0 -1243360.10614
2170.0 -1243363.0116
2180.0 -1243365.91671
2190.0 -1243368.82448
2200.0 -1243371.73491
2210.0 -1243374.64498
2220.0 -1243377.55769
2230.0 -1243380.47303
2240.0 -1243383.388
2250.0 -1243386.30559
2260.0 -1243389.22576
2270.0 -1243392.14704
2280.0 -1243395.06943
2290.0 -1243397.99292
2300.0 -1243400.91897
2310.0 -1243403.84755
2320.0 -1243406.77578
2330.0 -1243409.70652
2340.0 -1243412.63978
2350.0 -1243415.57268
2360.0 -1243418.50807
2370.0 -1243421.44594
2380.0 -1243424.38487
2390.0 -1243427.32484
2400.0 -1243430.26587
2410.0 -1243433.20934
2420.0 -1243436.15385
2430.0 -1243439.10078
2440.0 -1243442.04874
2450.0 -1243444.99773
2460.0 -1243447.94911
2470.0 -1243450.90151
2480.0 -1243453.85629
2490.0 -1243456.8107
2500.0 -1243459.76748
2510.0 -1243462.72662
2520.0 -1243465.68675
2530.0 -1243468.64786
2540.0 -1243471.61131
2550.0 -1243474.57573
2560.0 -1243477.54112
2570.0 -1243480.50883
2580.0 -1243483.47749
2590.0 -1243486.44712
2600.0 -1243489.41903
2610.0 -1243492.3919
2620.0 -1243495.36571
2630.0 -1243498.34179
2640.0 -1243501.31881
2650.0 -1243504.29807
2660.0 -1243507.27827
2670.0 -1243510.25939
2680.0 -1243513.24274
2690.0 -1243516.227
2700.0 -1243519.21218
2710.0 -1243522.19957
2720.0 -1243525.18786
2730.0 -1243528.17706
2740.0 -1243531.16844
2750.0 -1243534.16072
2760.0 -1243537.15516
2770.0 -1243540.14923
2780.0 -1243543.14672
2790.0 -1243546.14382
2800.0 -1243549.14306
2810.0 -1243552.14318
2820.0 -1243555.14543
2830.0 -1243558.14855
2840.0 -1243561.15378
2850.0 -1243564.15862
2860.0 -1243567.16557
2870.0 -1243570.1746
2880.0 -1243573.18449
2890.0 -1243576.19523
2900.0 -1243579.20681
2910.0 -1243582.22046
2920.0 -1243585.23617
2930.0 -1243588.2515
2940.0 -1243591.26887
2950.0 -1243594.28708
2960.0 -1243597.30732
2970.0 -1243600.32838
2980.0 -1243603.35147
2990.0 -1243606.37417
3000.0 -1243609.39889
3010.0 -1243612.42561
3020.0 -1243615.45313
3030.0 -1243618.48146
3040.0 -1243621.51059
