#temperature (K)# #Gibbs free energy (kJ / mol)#
100.0 -1440365.00025
110.0 -1440367.10789
120.0 -1440369.2462
130.0 -1440371.41276
140.0 -1440373.6057
150.0 -1440375.8232
160.0 -1440378.06391
170.0 -1440380.32661
180.0 -1440382.61005
190.0 -1440384.91338
200.0 -1440387.23574
210.0 -1440389.57627
220.0 -1440391.93427
230.0 -1440394.30917
240.0 -1440396.70032
250.0 -1440399.10728
260.0 -1440401.52946
270.0 -1440403.96646
280.0 -1440406.41785
290.0 -1440408.88329
300.0 -1440411.36231
310.0 -1440413.85474
320.0 -1440416.36009
330.0 -1440418.87815
340.0 -1440421.40871
350.0 -1440423.9514
360.0 -1440426.50601
370.0 -1440429.07228
380.0 -1440431.65019
390.0 -1440434.2392
400.0 -1440436.83908
410.0 -1440439.45008
420.0 -1440442.07186
430.0 -1440444.70379
440.0 -1440447.34642
450.0 -1440449.99888
460.0 -1440452.66166
470.0 -1440455.3342
480.0 -1440458.01646
490.0 -1440460.70817
500.0 -1440463.40929
510.0 -1440466.11979
520.0 -1440468.83961
530.0 -1440471.56827
540.0 -1440474.30596
550.0 -1440477.05241
560.0 -1440479.80759
570.0 -1440482.57125
580.0 -1440485.34336
590.0 -1440488.12407
600.0 -1440490.91274
610.0 -1440493.70974
620.0 -1440496.51463
630.0 -1440499.32757
640.0 -1440502.14851
650.0 -1440504.97704
660.0 -1440507.8133
670.0 -1440510.65708
680.0 -1440513.50849
690.0 -1440516.36717
700.0 -1440519.23324
710.0 -1440522.10663
720.0 -1440524.98715
730.0 -1440527.87476
740.0 -1440530.76941
750.0 -1440533.6709
760.0 -1440536.57933
770.0 -1440539.49464
780.0 -1440542.41652
790.0 -1440545.34518
800.0 -1440548.28031
810.0 -1440551.22211
820.0 -1440554.17029
830.0 -1440557.12479
840.0 -1440560.08568
850.0 -1440563.05291
860.0 -1440566.02631
870.0 -1440569.00582
880.0 -1440571.9914
890.0 -1440574.98309
900.0 -1440577.98064
910.0 -1440580.9842
920.0 -1440583.99361
930.0 -1440587.00873
940.0 -1440590.02977
950.0 -1440593.05642
960.0 -1440596.0887
970.0 -1440599.12666
980.0 -1440602.17014
990.0 -1440605.2191
1000.0 -1440608.27357
1010.0 -1440611.33373
1020.0 -1440614.39863
1030.0 -1440617.46904
1040.0 -1440620.54482
1050.0 -1440623.62583
1060.0 -1440626.71194
1070.0 -1440629.80377
1080.0 -1440632.89972
1090.0 -1440636.00183
1100.0 -1440639.10784
1110.0 -1440642.21974
1120.0 -1440645.33601
1130.0 -1440648.45722
1140.0 -1440651.58391
1150.0 -1440654.71464
1160.0 -1440657.8506
1170.0 -1440660.99103
1180.0 -1440664.13643
1190.0 -1440667.28669
1200.0 -1440670.44109
1210.0 -1440673.60013
1220.0 -1440676.76425
1230.0 -1440679.93278
1240.0 -1440683.1056
1250.0 -1440686.28263
1260.0 -1440689.4643
1270.0 -1440692.6505
1280.0 -1440695.84111
1290.0 -1440699.03603
1300.0 -1440702.23567
1310.0 -1440705.43892
1320.0 -1440708.64668
1330.0 -1440711.85883
1340.0 -1440715.07481
1350.0 -1440718.29545
1360.0 -1440721.51974
1370.0 -1440724.74848
1380.0 -1440727.98113
1390.0 -1440731.21803
1400.0 -1440734.45868
1410.0 -1440737.70379
1420.0 -1440740.95247
1430.0 -1440744.20544
1440.0 -1440747.4618
1450.0 -1440750.72265
1460.0 -1440753.98712
1470.0 -1440757.25551
1480.0 -1440760.52736
1490.0 -1440763.80333
1500.0 -1440767.08333
1510.0 -1440770.36689
1520.0 -1440773.65397
1530.0 -1440776.94515
1540.0 -1440780.23968
1550.0 -1440783.53781
1560.0 -1440786.8398
1570.0 -1440790.14557
1580.0 -1440793.4547
1590.0 -1440796.76744
1600.0 -1440800.08372
1610.0 -1440803.40376
1620.0 -1440806.72718
1630.0 -1440810.05392
1640.0 -1440813.38447
1650.0 -1440816.71819
1660.0 -1440820.05558
1670.0 -1440823.39627
1680.0 -1440826.74021
1690.0 -1440830.08785
1700.0 -1440833.4386
1710.0 -1440836.79291
1720.0 -1440840.15045
1730.0 -1440843.51114
1740.0 -1440846.87519
1750.0 -1440850.24252
1760.0 -1440853.6133
1770.0 -1440856.98722
1780.0 -1440860.36423
1790.0 -1440863.74448
1800.0 -1440867.12792
1810.0 -1440870.51471
1820.0 -1440873.90454
1830.0 -1440877.29737
1840.0 -1440880.69336
1850.0 -1440884.09265
1860.0 -1440887.49496
1870.0 -1440890.90023
1880.0 -1440894.30861
1890.0 -1440897.72005
1900.0 -1440901.13447
1910.0 -1440904.55183
1920.0 -1440907.97225
1930.0 -1440911.39568
1940.0 -1440914.82206
1950.0 -1440918.25152
1960.0 -1440921.68381
1970.0 -1440925.11888
1980.0 -1440928.55704
1990.0 -1440931.99805
2000.0 -1440935.44202
2010.0 -1440938.88873
2020.0 -1440942.3383
2030.0 -1440945.79084
2040.0 -1440949.24613
2050.0 -1440952.70395
2060.0 -1440956.16539
2070.0 -1440959.62877
2080.0 -1440963.09565
2090.0 -1440966.56439
2100.0 -1440970.03651
2110.0 -1440973.51041
2120.0 -1440976.9891
2130.0 -1440980.46797
2140.0 -1440983.95149
2150.0 -1440987.43662
2160.0 -1440990.92479
2170.0 -1440994.41594
2180.0 -1440997.91001
2190.0 -1441001.40555
2200.0 -1441004.90393
2210.0 -1441008.40509
2220.0 -1441011.91031
2230.0 -1441015.41686
2240.0 -1441018.92603
2250.0 -1441022.43778
2260.0 -1441025.95206
2270.0 -1441029.46882
2280.0 -1441032.98803
2290.0 -1441036.50963
2300.0 -1441040.0336
2310.0 -1441043.56109
2320.0 -1441047.09083
2330.0 -1441050.62279
2340.0 -1441054.15693
2350.0 -1441057.69322
2360.0 -1441061.23276
2370.0 -1441064.77436
2380.0 -1441068.3191
2390.0 -1441071.86581
2400.0 -1441075.41448
2410.0 -1441078.96613
2420.0 -1441082.51966
2430.0 -1441086.07608
2440.0 -1441089.63534
2450.0 -1441093.19636
2460.0 -1441096.75911
2470.0 -1441100.32458
2480.0 -1441103.89272
2490.0 -1441107.46347
2500.0 -1441111.03581
2510.0 -1441114.6107
2520.0 -1441118.18808
2530.0 -1441121.7679
2540.0 -1441125.35013
2550.0 -1441128.9338
2560.0 -1441132.52072
2570.0 -1441136.10902
2580.0 -1441139.70047
2590.0 -1441143.29325
2600.0 -1441146.88908
2610.0 -1441150.48618
2620.0 -1441154.08625
2630.0 -1441157.68838
2640.0 -1441161.29254
2650.0 -1441164.89871
2660.0 -1441168.50766
2670.0 -1441172.11854
2680.0 -1441175.73132
2690.0 -1441179.34676
2700.0 -1441182.96402
2710.0 -1441186.58387
2720.0 -1441190.20547
2730.0 -1441193.82882
2740.0 -1441197.45463
2750.0 -1441201.08287
2760.0 -1441204.71275
2770.0 -1441208.34498
2780.0 -1441211.97952
2790.0 -1441215.61562
2800.0 -1441219.25397
2810.0 -1441222.89452
2820.0 -1441226.53725
2830.0 -1441230.18211
2840.0 -1441233.8284
2850.0 -1441237.47743
2860.0 -1441241.1285
2870.0 -1441244.78091
2880.0 -1441248.43596
2890.0 -1441252.09295
2900.0 -1441255.75185
2910.0 -1441259.41263
2920.0 -1441263.07526
2930.0 -1441266.74034
2940.0 -1441270.40722
2950.0 -1441274.07585
2960.0 -1441277.74683
2970.0 -1441281.41952
2980.0 -1441285.09389
2990.0 -1441288.7705
3000.0 -1441292.44932
3010.0 -1441296.12974
3020.0 -1441299.8123
3030.0 -1441303.49697
3040.0 -1441307.18316
