#temperature (K)# #Gibbs free energy (kJ / mol)#
100.0 -525355.300079
110.0 -525356.568999
120.0 -525357.856841
130.0 -525359.162025
140.0 -525360.483214
150.0 -525361.819264
160.0 -525363.16918
170.0 -525364.532097
180.0 -525365.907248
190.0 -525367.293953
200.0 -525368.691603
210.0 -525370.09965
220.0 -525371.517599
230.0 -525372.945
240.0 -525374.381441
250.0 -525375.826545
260.0 -525377.279966
270.0 -525378.741384
280.0 -525380.210502
290.0 -525381.687045
300.0 -525383.170758
310.0 -525384.6614
320.0 -525386.158749
330.0 -525387.662594
340.0 -525389.17274
350.0 -525390.688999
360.0 -525392.211199
370.0 -525393.739173
380.0 -525395.272765
390.0 -525396.811829
400.0 -525398.356222
410.0 -525399.905813
420.0 -525401.460474
430.0 -525403.020085
440.0 -525404.58453
450.0 -525406.153699
460.0 -525407.727488
470.0 -525409.305796
480.0 -525410.888528
490.0 -525412.475589
500.0 -525414.066894
510.0 -525415.662355
520.0 -525417.261893
530.0 -525418.865428
540.0 -525420.472886
550.0 -525422.084193
560.0 -525423.699279
570.0 -525425.318078
580.0 -525426.940523
590.0 -525428.566552
600.0 -525430.196105
610.0 -525431.829122
620.0 -525433.465547
630.0 -525435.105324
640.0 -525436.748401
650.0 -525438.394726
660.0 -525440.044249
670.0 -525441.696922
680.0 -525443.352697
690.0 -525445.011529
700.0 -525446.673374
710.0 -525448.338188
720.0 -525450.00593
730.0 -525451.676559
740.0 -525453.350035
750.0 -525455.02632
760.0 -525456.705377
770.0 -525458.38717
780.0 -525460.071661
790.0 -525461.758818
800.0 -525463.448606
810.0 -525465.140992
820.0 -525466.835945
830.0 -525468.533432
840.0 -525470.233424
850.0 -525471.93589
860.0 -525473.640802
870.0 -525475.348131
880.0 -525477.05785
890.0 -525478.76993
900.0 -525480.484346
910.0 -525482.201071
920.0 -525483.920081
930.0 -525485.64135
940.0 -525487.364855
950.0 -525489.09057
960.0 -525490.818474
970.0 -525492.548543
980.0 -525494.280755
990.0 -525496.015088
1000.0 -525497.751521
1010.0 -525499.490032
1020.0 -525501.230601
1030.0 -525502.973209
1040.0 -525504.717834
1050.0 -525506.464458
1060.0 -525508.213062
1070.0 -525509.963626
1080.0 -525511.716134
1090.0 -525513.470566
1100.0 -525515.226905
1110.0 -525516.985134
1120.0 -525518.745235
1130.0 -525520.507192
1140.0 -525522.270989
1150.0 -525524.036609
1160.0 -525525.804037
1170.0 -525527.573257
1180.0 -525529.344253
1190.0 -525531.117011
1200.0 -525532.891515
1210.0 -525534.667752
1220.0 -525536.445707
1230.0 -525538.225365
1240.0 -525540.006713
1250.0 -525541.789738
1260.0 -525543.574426
1270.0 -525545.360763
1280.0 -525547.148737
1290.0 -525548.938335
1300.0 -525550.729544
1310.0 -525552.522353
1320.0 -525554.316748
1330.0 -525556.112717
1340.0 -525557.91025
1350.0 -525559.709334
1360.0 -525561.509958
1370.0 -525563.31211
1380.0 -525565.115779
1390.0 -525566.920954
1400.0 -525568.727625
1410.0 -525570.535781
1420.0 -525572.345411
1430.0 -525574.156504
1440.0 -525575.969052
1450.0 -525577.783042
1460.0 -525579.598467
1470.0 -525581.415315
1480.0 -525583.233577
1490.0 -525585.053243
1500.0 -525586.874305
1510.0 -525588.696752
1520.0 -525590.520576
1530.0 -525592.345768
1540.0 -525594.172318
1550.0 -525596.000217
1560.0 -525597.829458
1570.0 -525599.660032
1580.0 -525601.491929
1590.0 -525603.325142
1600.0 -525605.159662
1610.0 -525606.995481
1620.0 -525608.832592
1630.0 -525610.670985
1640.0 -525612.510654
1650.0 -525614.35159
1660.0 -525616.193786
1670.0 -525618.037234
1680.0 -525619.881927
1690.0 -525621.727857
1700.0 -525623.575017
1710.0 -525625.4234
1720.0 -525627.272998
1730.0 -525629.123805
1740.0 -525630.975813
1750.0 -525632.829016
1760.0 -525634.683407
1770.0 -525636.538979
1780.0 -525638.395725
1790.0 -525640.253639
1800.0 -525642.112714
1810.0 -525643.972944
1820.0 -525645.834322
1830.0 -525647.696843
1840.0 -525649.560499
1850.0 -525651.425285
1860.0 -525653.291195
1870.0 -525655.158222
1880.0 -525657.026361
1890.0 -525658.895605
1900.0 -525660.765949
1910.0 -525662.637388
1920.0 -525664.509914
1930.0 -525666.383523
1940.0 -525668.258209
1950.0 -525670.133967
1960.0 -525672.01079
1970.0 -525673.888674
1980.0 -525675.767613
1990.0 -525677.647602
2000.0 -525679.528636
2010.0 -525681.410709
2020.0 -525683.293816
2030.0 -525685.177952
2040.0 -525687.063112
2050.0 -525688.949291
2060.0 -525690.836483
2070.0 -525692.724685
2080.0 -525694.613891
2090.0 -525696.504097
2100.0 -525698.395297
2110.0 -525700.287486
2120.0 -525702.180661
2130.0 -525704.074817
2140.0 -525705.969948
2150.0 -525707.86605
2160.0 -525709.76312
2170.0 -525711.661152
2180.0 -525713.560141
2190.0 -525715.460084
2200.0 -525717.360976
2210.0 -525719.262814
2220.0 -525721.165591
2230.0 -525723.069305
2240.0 -525724.973951
2250.0 -525726.879525
2260.0 -525728.786023
2270.0 -525730.69344
2280.0 -525732.601774
2290.0 -525734.511019
2300.0 -525736.421171
2310.0 -525738.332228
2320.0 -525740.244184
2330.0 -525742.157036
2340.0 -525744.07078
2350.0 -525745.985413
2360.0 -525747.90093
2370.0 -525749.817328
2380.0 -525751.734603
2390.0 -525753.652751
2400.0 -525755.571769
2410.0 -525757.491653
2420.0 -525759.4124
2430.0 -525761.334006
2440.0 -525763.256466
2450.0 -525765.179779
2460.0 -525767.103941
2470.0 -525769.028947
2480.0 -525770.954795
2490.0 -525772.88148
2500.0 -525774.809001
2510.0 -525776.737353
2520.0 -525778.666534
2530.0 -525780.596539
2540.0 -525782.527366
2550.0 -525784.459011
2560.0 -525786.391471
2570.0 -525788.324743
2580.0 -525790.258824
2590.0 -525792.193711
2600.0 -525794.1294
2610.0 -525796.065889
2620.0 -525798.003174
2630.0 -525799.941252
2640.0 -525801.880121
2650.0 -525803.819777
2660.0 -525805.760218
2670.0 -525807.70144
2680.0 -525809.64344
2690.0 -525811.586216
2700.0 -525813.529765
2710.0 -525815.474084
2720.0 -525817.41917
2730.0 -525819.365019
2740.0 -525821.311631
2750.0 -525823.259001
2760.0 -525825.207126
2770.0 -525827.156005
2780.0 -525829.105635
2790.0 -525831.056012
2800.0 -525833.007134
2810.0 -525834.958998
2820.0 -525836.911602
2830.0 -525838.864943
2840.0 -525840.819019
2850.0 -525842.773827
2860.0 -525844.729364
2870.0 -525846.685627
2880.0 -525848.642616
2890.0 -525850.600325
2900.0 -525852.558754
2910.0 -525854.5179
2920.0 -525856.47776
2930.0 -525858.438332
2940.0 -525860.399613
2950.0 -525862.361602
2960.0 -525864.324295
2970.0 -525866.28769
2980.0 -525868.251785
2990.0 -525870.216578
3000.0 -525872.182065
3010.0 -525874.148246
3020.0 -525876.115117
3030.0 -525878.082677
3040.0 -525880.050922
